>Long-term eustatic sea-level changes from Haq et al. (1987).
>Time(Ma)  (m)
-243.07   14.82
-242.76   15.97
-242.23   16.54
-240.87   16.59
-239.94   19.91
-238.83   24.18
-237.41   26.37
-235.93   29.15
-234.99   32.90
-233.19   38.96
-232.25   44.26
-231.09   49.68
-230.10   55.16
-228.93   60.30
-227.80   63.74
-226.70   67.58
-225.59   70.86
-224.34   75.78
-223.01   76.08
-221.37   72.89
-220.24   68.87
-218.80   56.84
-217.28   47.67
-215.59   27.18
-211.98    1.41
-210.67   -6.04
-209.22   -6.65
-207.15  -11.01
-205.46  -10.09
-203.81  -10.73
-202.08  -12.74
-199.65   -3.39
-196.81   16.06
-195.60   30.10
-194.10   37.40
-192.58   41.33
-190.87   45.37
-190.84   45.10
-188.48   38.08
-187.01   31.42
-186.13   35.28
-184.24   55.76
-183.02   67.13
-182.06   68.64
-181.03   65.12
-180.09   55.63
-178.37   41.64
-177.26   35.91
-176.55   37.29
-175.47   39.71
-174.04   55.84
-173.10   65.66
-171.93   78.13
-170.25   92.99
-168.95   97.65
-167.84   98.39
-166.86  102.03
-165.80  102.19
-164.52   95.85
-163.18   90.81
-161.73   74.28
-160.38   61.78
-159.15   54.00
-157.54   58.54
-155.89   68.18
-154.51   85.41
-151.40  113.17
-149.80  124.33
-148.23  122.23
-146.95  124.91
-145.18  134.04
-143.09  148.14
-141.20  161.71
-140.02  168.27
-138.78  172.33
-137.42  166.46
-135.95  151.21
-134.26  135.23
-133.65  128.80
-132.25  132.25
-131.51  141.95
-131.07  144.02
-130.39  141.01
-129.21  128.28
-127.86  110.28
-126.34   94.21
-125.81   95.77
-125.05   92.39
-124.28   92.81
-122.34  105.70
-119.61  140.72
-117.06  180.70
-115.70  184.69
-113.67  171.71
-110.45  157.98
-107.57  154.21
-105.29  165.18
-103.09  179.20
-100.15  210.24
 -98.49  233.69
 -96.85  248.39
 -95.49  250.68
 -94.10  251.86
 -93.49  247.83
 -92.66  253.92
 -92.04  260.88
 -91.18  261.35
 -90.61  254.06
 -89.33  240.25
 -89.03  237.60
 -88.70  235.38
 -87.69  231.85
 -87.09  228.10
 -86.10  226.53
 -85.09  227.22
 -83.92  225.89
 -82.52  230.32
 -81.74  236.80
 -79.84  245.16
 -78.77  245.18
 -77.00  243.48
 -75.19  235.88
 -70.61  217.40
 -68.93  210.57
 -66.92  205.90
 -64.84  198.44
 -62.72  200.88
 -60.55  195.72
 -58.42  190.98
 -57.05  192.43
 -55.38  199.26
 -53.48  220.86
 -51.86  222.74
 -50.06  222.88
 -47.67  219.82
 -46.10  215.18
 -45.82  212.66
 -43.14  203.71
 -40.77  194.44
 -39.46  188.11
 -38.48  191.33
 -36.46  195.39
 -35.69  198.77
 -33.96  205.49
 -32.57  197.52
 -30.81  176.65
 -28.67  152.19
 -27.34  136.86
 -26.13  134.71
 -23.60  136.24
 -22.28  136.96
 -21.10  141.97
 -19.41  145.85
 -17.88  147.26
 -16.33  147.26
 -14.30  144.99
 -12.88  142.24
 -11.50  136.10
  -9.33  124.33
  -6.99  106.17
  -5.11   92.27
  -3.35   78.31
  -2.14   69.25
  -1.13   62.90
   -.52   60.99
   -.27   59.71
   -.05   59.27
    .01   59.16
