#MMP: 	x=9.75 km
#z(m)  Compress(MPa) Extens(MPa)  Temp(C)  Stress [MPa]
0.00	-0.00	0.00	0.00	0.00
1.00	-40.00	16.00	16.90	16.00
2.00	-80.00	32.00	33.81	32.00
3.00	-120.00	48.00	50.76	48.00
4.00	-160.00	64.00	67.72	64.00
5.00	-200.00	80.00	84.62	80.00
6.00	-240.00	96.00	101.53	96.00
7.00	-280.00	112.00	118.38	112.00
8.00	-320.00	128.00	135.24	128.00
9.00	-360.00	144.00	152.09	144.00
10.00	-400.00	160.00	168.95	160.00
11.00	-440.00	176.00	185.75	176.00
12.00	-480.00	192.00	202.56	192.00
13.00	-520.00	208.00	219.36	208.00
14.00	-560.00	224.00	236.16	224.00
15.00	-600.00	240.00	252.87	240.00
16.00	-640.00	256.00	269.57	256.00
17.00	-680.00	272.00	286.23	272.00
18.00	-720.00	288.00	302.88	288.00
19.00	-760.00	304.00	319.49	304.00
20.00	-800.00	320.00	336.09	320.00
21.00	-840.00	336.00	352.64	336.00
22.00	-880.00	352.00	369.20	352.00
23.00	-920.00	368.00	385.65	368.00
24.00	-960.00	384.00	402.10	384.00
25.00	-1000.00	400.00	418.51	400.00
26.00	-1040.00	416.00	434.91	416.00
27.00	-1080.00	432.00	451.21	432.00
28.00	-1120.00	448.00	467.52	448.00
29.00	-1160.00	464.00	483.72	464.00
30.00	-1200.00	480.00	499.92	480.00
31.00	-1240.00	496.00	516.07	496.00
32.00	-1280.00	512.00	532.23	512.00
33.00	-1320.00	528.00	548.23	528.00
34.00	-1360.00	544.00	564.23	544.00
35.00	-1310.57	560.00	580.18	346.69
36.00	-1164.87	576.00	596.13	33.77
37.00	-1021.58	592.00	611.94	-279.16
38.00	-879.56	608.00	627.74	-592.08
39.00	-739.48	624.00	643.49	-776.21
40.00	-600.61	600.61	659.24	-637.28
41.00	-464.19	464.19	674.84	-500.81
42.00	-328.90	328.90	690.44	-365.47
43.00	-198.93	198.93	705.94	-232.08
44.00	-142.87	142.87	721.44	-156.41
45.00	-103.87	103.87	736.85	-113.47
46.00	-76.24	76.24	752.25	-83.11
47.00	-56.61	56.61	767.55	-61.56
48.00	-42.40	42.40	782.85	-46.00
49.00	-32.10	32.10	798.05	-34.72
50.00	-24.48	24.48	813.24	-26.41
51.00	-18.85	18.85	828.29	-20.30
52.00	-14.62	14.62	843.34	-15.71
53.00	-11.44	11.44	858.29	-12.26
54.00	-9.01	9.01	873.24	9.63
55.00	-7.14	7.14	888.14	7.62
56.00	-5.70	5.70	903.04	6.07
57.00	-4.58	4.58	917.79	4.87
58.00	-3.70	3.70	932.54	3.92
59.00	-3.01	3.01	947.18	3.19
60.00	-2.46	2.46	961.83	2.60
61.00	-2.03	2.03	976.33	2.14
62.00	-1.67	1.67	990.83	1.76
63.00	-1.39	1.39	1005.28	1.46
64.00	-1.16	1.16	1019.72	1.22
65.00	-0.97	0.97	1034.12	1.02
66.00	-0.82	0.82	1048.52	0.86
67.00	-0.69	0.69	1062.77	0.72
68.00	-0.59	0.59	1077.01	0.61
69.00	-0.50	0.50	1091.21	0.52
70.00	-0.43	0.43	1105.41	0.44
71.00	-0.37	0.37	1119.50	0.38
72.00	-0.32	0.32	1133.60	0.33
73.00	-0.27	0.27	1147.60	0.28
74.00	-0.24	0.24	1161.59	0.25
75.00	-0.21	0.21	1175.54	0.21
76.00	-0.18	0.18	1189.49	0.19
77.00	-0.16	0.16	1203.38	0.16
78.00	-0.14	0.14	1217.28	0.14
79.00	-0.12	0.12	1231.12	0.12
80.00	-0.11	0.11	1244.97	0.11
81.00	-0.10	0.10	1258.72	0.10
82.00	-0.08	0.08	1272.46	0.09
83.00	-0.08	0.08	1286.21	0.08
84.00	-0.07	0.07	1299.95	0.07
85.00	-0.06	0.06	1313.65	0.06
86.00	-0.05	0.05	1327.34	0.05
87.00	-0.05	0.05	1340.99	0.05
88.00	-0.04	0.04	1354.64	0.04
89.00	-0.04	0.04	1368.28	0.04
90.00	-0.03	0.03	1381.93	0.04
91.00	-0.03	0.03	1395.57	0.03
92.00	-0.03	0.03	1409.21	0.03
93.00	-0.03	0.03	1422.81	0.03
94.00	-0.02	0.02	1436.40	0.02
95.00	-0.02	0.02	1450.00	0.02
96.00	-0.02	0.02	1463.60	0.02
97.00	-0.02	0.02	1477.19	0.02
98.00	-0.02	0.02	1490.79	0.02
99.00	-0.01	0.01	1504.43	0.01
100.00	-0.01	0.01	1518.07	0.01
